      P(bar)          T(K)        Rho(k_gm-3)
  7988.27588       990.564          272.42999
  7976.55566       990.172          272.14001
  7964.84814       989.779          271.85001
  7953.15283       989.387          271.56000
  7941.47021       988.994          271.26999
  7929.80029       988.601          270.97000
  7918.14258       988.209          270.67999
  7906.49707       987.816          270.39001
  7894.86523       987.423          270.10001
  7883.24463       987.031          269.81000
  7871.63721       986.638          269.51999
  7860.04248       986.245          269.23001
  7848.45947       985.852          268.94000
  7836.88965       985.459          268.64999
  7825.33203       985.067          268.35999
  7813.78711       984.674          268.07999
  7802.25391       984.281          267.79001
  7790.73340       983.888          267.50000
  7779.22559       983.495          267.20999
  7767.72998       983.102          266.92001
  7756.24707       982.709          266.63000
  7744.77637       982.316          266.35001
  7733.31787       981.923          266.06000
  7721.87207       981.530          265.76999
  7710.43799       981.137          265.48001
  7699.01709       980.744          265.20001
  7687.60791       980.351          264.91000
  7676.21143       979.958          264.62000
  7664.82666       979.565          264.34000
  7653.45557       979.172          264.04999
  7642.09521       978.779          263.76001
  7630.74805       978.386          263.48001
  7619.41309       977.992          263.19000
  7608.09082       977.599          262.91000
  7596.78027       977.206          262.62000
  7585.48242       976.813          262.34000
  7574.19580       976.420          262.04999
  7562.92236       976.026          261.76999
  7551.66064       975.633          261.48001
  7540.41211       975.240          261.20001
  7529.17480       974.846          260.92001
  7517.95020       974.453          260.63000
  7506.73779       974.060          260.35001
  7495.53711       973.666          260.06000
  7484.34961       973.273          259.78000
  7473.17383       972.880          259.50000
  7462.00977       972.486          259.20999
  7450.85840       972.093          258.92999
  7439.71924       971.699          258.64999
  7428.59131       971.306          258.37000
  7417.47656       970.912          258.09000
  7406.37354       970.519          257.79999
  7395.28271       970.125          257.51999
  7384.20410       969.731          257.23999
  7373.13721       969.338          256.95999
  7362.08301       968.944          256.67999
  7351.04053       968.551          256.39999
  7340.01025       968.157          256.12000
  7328.99219       967.763          255.84000
  7317.98584       967.370          255.56000
  7306.99121       966.976          255.28000
  7296.00977       966.582          255.00000
  7285.03955       966.188          254.72000
  7274.08105       965.794          254.44000
  7263.13525       965.401          254.16000
  7252.20166       965.007          253.88000
  7241.27930       964.613          253.60001
  7230.36914       964.219          253.32001
  7219.47119       963.825          253.03999
  7208.58545       963.431          252.77000
  7197.71143       963.037          252.49001
  7186.84912       962.643          252.21001
  7175.99951       962.250          251.92999
  7165.16162       961.856          251.64999
  7154.33545       961.462          251.38000
  7143.52051       961.068          251.10001
  7132.71875       960.674          250.82001
  7121.92773       960.279          250.55000
  7111.14941       959.885          250.27000
  7100.38281       959.491          249.99001
  7089.62793       959.097          249.72000
  7078.88525       958.703          249.44000
  7068.15430       958.309          249.17000
  7057.43506       957.915          248.89000
  7046.72754       957.521          248.61000
  7036.03223       957.126          248.34000
  7025.34863       956.732          248.06000
  7014.67725       956.338          247.78999
  7004.01660       955.943          247.52000
  6993.36914       955.549          247.24001
  6982.73193       955.155          246.97000
  6972.10840       954.760          246.69000
  6961.49512       954.366          246.42000
  6950.89404       953.972          246.14999
  6940.30469       953.577          245.87000
  6929.72754       953.183          245.60001
  6919.16162       952.789          245.33000
  6908.60791       952.394          245.05000
  6898.06592       952.000          244.78000
  6887.53516       951.605          244.50999
  6877.01611       951.211          244.24001
  6866.50928       950.816          243.96001
  6856.01416       950.421          243.69000
  6845.53027       950.027          243.42000
  6835.05859       949.632          243.14999
  6824.59766       949.238          242.88000
  6814.14893       948.843          242.61000
  6803.71240       948.448          242.34000
  6793.28711       948.054          242.07001
  6782.87354       947.659          241.80000
  6772.47119       947.264          241.53000
  6762.08057       946.869          241.25999
  6751.70264       946.475          240.99001
  6741.33496       946.080          240.72000
  6730.97900       945.685          240.45000
  6720.63574       945.290          240.17999
  6710.30273       944.895          239.91000
  6699.98193       944.501          239.64000
  6689.67285       944.106          239.37000
  6679.37549       943.711          239.10001
  6669.08936       943.316          238.83000
  6658.81396       942.921          238.57001
  6648.55127       942.526          238.30000
  6638.29932       942.131          238.03000
  6628.05957       941.736          237.75999
  6617.83105       941.341          237.50000
  6607.61426       940.946          237.23000
  6597.40869       940.551          236.96001
  6587.21484       940.156          236.69000
  6577.03223       939.761          236.42999
  6566.86084       939.365          236.16000
  6556.70166       938.970          235.89999
  6546.55273       938.575          235.63000
  6536.41650       938.180          235.36000
  6526.29102       937.785          235.10001
  6516.17725       937.389          234.83000
  6506.07471       936.994          234.57001
  6495.98340       936.599          234.30000
  6485.90381       936.204          234.03999
  6475.83545       935.808          233.77000
  6465.77832       935.413          233.50999
  6455.73291       935.018          233.24001
  6445.69922       934.622          232.98000
  6435.67627       934.227          232.72000
  6425.66504       933.831          232.46001
  6415.66504       933.436          232.19000
  6405.67627       933.041          231.92999
  6395.69873       932.645          231.66000
  6385.73242       932.250          231.39999
  6375.77783       931.854          231.14000
  6365.83447       931.458          230.88000
  6355.90186       931.063          230.61000
  6345.98145       930.667          230.35001
  6336.07178       930.272          230.09000
  6326.17334       929.876          229.83000
  6316.28613       929.480          229.57001
  6306.41016       929.085          229.31000
  6296.54590       928.689          229.03999
  6286.69238       928.293          228.78000
  6276.85059       927.898          228.52000
  6267.01953       927.502          228.25999
  6257.20020       927.106          228.00000
  6247.39160       926.710          227.74001
  6237.59424       926.315          227.48000
  6227.80811       925.919          227.22000
  6218.03271       925.523          226.96001
  6208.26953       925.127          226.70000
  6198.51660       924.731          226.44000
  6188.77490       924.335          226.19000
  6179.04492       923.939          225.92000
  6169.32568       923.543          225.67000
  6159.61816       923.147          225.41000
  6149.92041       922.751          225.14999
  6140.23486       922.355          224.89000
  6130.56006       921.959          224.64000
  6120.89648       921.563          224.38000
  6111.24414       921.167          224.12000
  6101.60254       920.771          223.86000
  6091.97266       920.375          223.61000
  6082.35352       919.979          223.35001
  6072.74512       919.583          223.09000
  6063.14746       919.186          222.83000
  6053.56152       918.790          222.58000
  6043.98633       918.394          222.32001
  6034.42236       917.998          222.07001
  6024.86914       917.601          221.81000
  6015.32666       917.205          221.55000
  6005.79590       916.809          221.30000
  5996.27588       916.412          221.03999
  5986.76660       916.016          220.78999
  5977.26855       915.620          220.53000
  5967.78125       915.223          220.28000
  5958.30518       914.827          220.02000
  5948.83984       914.430          219.77000
  5939.38574       914.034          219.52000
  5929.94238       913.638          219.25999
  5920.51025       913.241          219.00999
  5911.08789       912.844          218.75999
  5901.67725       912.448          218.50000
  5892.27783       912.051          218.25000
  5882.88916       911.655          218.00000
  5873.51123       911.258          217.74001
  5864.14404       910.862          217.49001
  5854.78760       910.465          217.24001
  5845.44238       910.068          216.98000
  5836.10840       909.672          216.73000
  5826.78467       909.275          216.48000
  5817.47119       908.878          216.23000
  5808.16943       908.481          215.98000
  5798.87793       908.085          215.73000
  5789.59814       907.688          215.48000
  5780.32813       907.291          215.22000
  5771.06934       906.894          214.98000
  5761.82129       906.497          214.72000
  5752.58447       906.100          214.47000
  5743.35791       905.704          214.22000
  5734.14258       905.307          213.97000
  5724.93750       904.910          213.72000
  5715.74316       904.513          213.47000
  5706.56006       904.116          213.23000
  5697.38770       903.719          212.98000
  5688.22510       903.322          212.73000
  5679.07373       902.925          212.48000
  5669.93359       902.528          212.23000
  5660.80371       902.131          211.98000
  5651.68457       901.733          211.73000
  5642.57617       901.336          211.49001
  5633.47852       900.939          211.24001
  5624.39111       900.542          210.99001
  5615.31445       900.145          210.74001
  5606.24902       899.748          210.49001
  5597.19336       899.350          210.25000
  5588.14893       898.953          210.00000
  5579.11572       898.556          209.75000
  5570.09229       898.159          209.50999
  5561.07959       897.761          209.25999
  5552.07764       897.364          209.00999
  5543.08594       896.967          208.77000
  5534.10498       896.569          208.52000
  5525.13477       896.172          208.28000
  5516.17480       895.774          208.03000
  5507.22559       895.377          207.78000
  5498.28760       894.979          207.53999
  5489.35938       894.582          207.30000
  5480.44141       894.184          207.05000
  5471.53467       893.787          206.81000
  5462.63818       893.389          206.56000
  5453.75244       892.992          206.32001
  5444.87695       892.594          206.07001
  5436.01172       892.197          205.83000
  5427.15723       891.799          205.59000
  5418.31299       891.401          205.34000
  5409.47949       891.004          205.10001
  5400.65674       890.606          204.86000
  5391.84375       890.208          204.61000
  5383.04199       889.810          204.37000
  5374.25000       889.413          204.13000
  5365.46924       889.015          203.89000
  5356.69824       888.617          203.64000
  5347.93799       888.219          203.39999
  5339.18799       887.821          203.16000
  5330.44824       887.424          202.92000
  5321.71924       887.026          202.67999
  5313.00049       886.628          202.44000
  5304.29199       886.230          202.19000
  5295.59375       885.832          201.95000
  5286.90625       885.434          201.71001
  5278.22900       885.036          201.47000
  5269.56201       884.638          201.23000
  5260.90527       884.240          200.99001
  5252.25879       883.842          200.75000
  5243.62256       883.444          200.50999
  5234.99707       883.046          200.27000
  5226.38184       882.648          200.03000
  5217.77686       882.250          199.78999
  5209.18213       881.851          199.56000
  5200.59766       881.453          199.32001
  5192.02344       881.055          199.08000
  5183.45947       880.657          198.84000
  5174.90576       880.259          198.60001
  5166.36230       879.860          198.36000
  5157.82910       879.462          198.12000
  5149.30615       879.064          197.89000
  5140.79346       878.665          197.64999
  5132.29102       878.267          197.41000
  5123.79883       877.869          197.17000
  5115.31689       877.470          196.94000
  5106.84473       877.072          196.70000
  5098.38330       876.673          196.46001
  5089.93164       876.275          196.23000
  5081.49072       875.876          195.99001
  5073.05908       875.478          195.75999
  5064.63818       875.079          195.52000
  5056.22754       874.681          195.28000
  5047.82666       874.282          195.05000
  5039.43604       873.884          194.81000
  5031.05615       873.485          194.58000
  5022.68555       873.087          194.34000
  5014.32568       872.688          194.11000
  5005.97559       872.289          193.87000
  4997.63525       871.891          193.64000
  4989.30518       871.492          193.39999
  4980.98584       871.093          193.17000
  4972.67578       870.694          192.94000
  4964.37646       870.296          192.70000
  4956.08691       869.897          192.47000
  4947.80713       869.498          192.23000
  4939.53760       869.099          192.00000
  4931.27832       868.700          191.77000
  4923.02832       868.302          191.53999
  4914.78906       867.903          191.30000
  4906.55957       867.504          191.07001
  4898.34033       867.105          190.84000
  4890.13086       866.706          190.61000
  4881.93164       866.307          190.37000
  4873.74219       865.908          190.14000
  4865.56250       865.509          189.91000
  4857.39307       865.110          189.67999
  4849.23340       864.711          189.45000
  4841.08398       864.312          189.22000
  4832.94385       863.913          188.99001
  4824.81445       863.513          188.75999
  4816.69482       863.114          188.53000
  4808.58447       862.715          188.30000
  4800.48486       862.316          188.07001
  4792.39453       861.917          187.83000
  4784.31445       861.518          187.60001
  4776.24414       861.118          187.37000
  4768.18359       860.719          187.14999
  4760.13330       860.320          186.92000
  4752.09229       859.920          186.69000
  4744.06152       859.521          186.46001
  4736.04053       859.122          186.23000
  4728.02930       858.722          186.00000
  4720.02832       858.323          185.77000
  4712.03662       857.924          185.53999
  4704.05518       857.524          185.32001
  4696.08301       857.125          185.09000
  4688.12109       856.725          184.86000
  4680.16895       856.326          184.63000
  4672.22656       855.926          184.41000
  4664.29395       855.527          184.17999
  4656.37109       855.127          183.95000
  4648.45801       854.728          183.73000
  4640.55469       854.328          183.50000
  4632.66064       853.928          183.27000
  4624.77686       853.529          183.05000
  4616.90283       853.129          182.82001
  4609.03857       852.729          182.59000
  4601.18359       852.330          182.37000
  4593.33838       851.930          182.14000
  4585.50342       851.530          181.92000
  4577.67773       851.130          181.69000
  4569.86182       850.731          181.47000
  4562.05566       850.331          181.24001
  4554.25928       849.931          181.02000
  4546.47217       849.531          180.78999
  4538.69482       849.131          180.57001
  4530.92725       848.731          180.34000
  4523.16943       848.332          180.12000
  4515.42090       847.932          179.89999
  4507.68262       847.532          179.67000
  4499.95313       847.132          179.45000
  4492.23389       846.732          179.23000
  4484.52393       846.332          179.00000
  4476.82373       845.932          178.78000
  4469.13330       845.532          178.56000
  4461.45215       845.132          178.34000
  4453.78027       844.731          178.11000
  4446.11865       844.331          177.89000
  4438.46631       843.931          177.67000
  4430.82324       843.531          177.45000
  4423.18994       843.131          177.23000
  4415.56641       842.731          177.00999
  4407.95215       842.330          176.78999
  4400.34766       841.930          176.56000
  4392.75244       841.530          176.34000
  4385.16650       841.130          176.12000
  4377.59033       840.729          175.89999
  4370.02344       840.329          175.67999
  4362.46680       839.929          175.46001
  4354.91895       839.528          175.24001
  4347.38037       839.128          175.02000
  4339.85156       838.728          174.80000
  4332.33203       838.327          174.58000
  4324.82227       837.927          174.36000
  4317.32178       837.526          174.14000
  4309.83057       837.126          173.92000
  4302.34912       836.725          173.70000
  4294.87695       836.325          173.49001
  4287.41406       835.924          173.27000
  4279.96045       835.524          173.05000
  4272.51660       835.123          172.83000
  4265.08203       834.722          172.61000
  4257.65674       834.322          172.39999
  4250.24072       833.921          172.17999
  4242.83447       833.520          171.96001
  4235.43750       833.120          171.74001
  4228.04980       832.719          171.52000
  4220.67090       832.318          171.31000
  4213.30176       831.918          171.09000
  4205.94189       831.517          170.87000
  4198.59180       831.116          170.66000
  4191.25049       830.715          170.44000
  4183.91846       830.314          170.23000
  4176.59570       829.914          170.00999
  4169.28271       829.513          169.80000
  4161.97852       829.112          169.58000
  4154.68408       828.711          169.37000
  4147.39844       828.310          169.14999
  4140.12207       827.909          168.92999
  4132.85498       827.508          168.72000
  4125.59766       827.107          168.50999
  4118.34863       826.706          168.28999
  4111.10986       826.305          168.08000
  4103.87988       825.904          167.86000
  4096.65869       825.503          167.64999
  4089.44702       825.102          167.42999
  4082.24487       824.701          167.22000
  4075.05151       824.300          167.00999
  4067.86719       823.898          166.80000
  4060.69238       823.497          166.58000
  4053.52661       823.096          166.37000
  4046.37036       822.695          166.16000
  4039.22266       822.294          165.94000
  4032.08447       821.892          165.73000
  4024.95557       821.491          165.52000
  4017.83545       821.090          165.31000
  4010.72437       820.688          165.09000
  4003.62280       820.287          164.88000
  3996.53027       819.886          164.67000
  3989.44678       819.484          164.46001
  3982.37207       819.083          164.25000
