      P(bar)          T(K)        Rho(k_gm-3)
  5000.00781       740.451          340.89999
  4981.49121       739.732          339.97000
  4963.02490       739.013          339.03000
  4944.60938       738.294          338.10999
  4926.24463       737.575          337.17999
  4907.92969       736.856          336.25000
  4889.66504       736.136          335.32999
  4871.45117       735.417          334.41000
  4853.28711       734.698          333.48999
  4835.17334       733.978          332.57001
  4817.10889       733.258          331.64999
  4799.09473       732.538          330.73001
  4781.13037       731.818          329.82001
  4763.21582       731.098          328.91000
  4745.35059       730.378          328.00000
  4727.53467       729.658          327.09000
  4709.76855       728.938          326.17999
  4692.05127       728.217          325.28000
  4674.38330       727.497          324.37000
  4656.76465       726.776          323.47000
  4639.19482       726.055          322.57001
  4621.67383       725.335          321.67001
  4604.20215       724.614          320.76999
  4586.77881       723.893          319.88000
  4569.40430       723.172          318.98001
  4552.07861       722.450          318.09000
  4534.80078       721.729          317.20001
  4517.57227       721.008          316.31000
  4500.39160       720.286          315.42999
  4483.25879       719.565          314.54001
  4466.17432       718.843          313.66000
  4449.13818       718.121          312.76999
  4432.14990       717.399          311.89001
  4415.20947       716.677          311.01001
  4398.31641       715.955          310.13000
  4381.47119       715.233          309.26001
  4364.67383       714.511          308.39001
  4347.92383       713.789          307.51001
  4331.22168       713.066          306.64001
  4314.56592       712.344          305.76999
  4297.95801       711.621          304.91000
  4281.39746       710.898          304.04001
  4264.88330       710.175          303.17999
  4248.41699       709.453          302.31000
  4231.99658       708.730          301.45001
  4215.62354       708.006          300.59000
  4199.29736       707.283          299.73001
  4183.01758       706.560          298.88000
  4166.78418       705.837          298.01999
  4150.59766       705.113          297.17001
  4134.45752       704.390          296.32001
  4118.36328       703.666          295.47000
  4102.31543       702.942          294.62000
  4086.31323       702.218          293.76999
  4070.35742       701.495          292.92999
  4054.44727       700.771          292.07999
  4038.58325       700.046          291.23999
  4022.76514       699.322          290.39999
  4006.99243       698.598          289.56000
  3991.26538       697.874          288.73001
  3975.58374       697.149          287.89001
  3959.94751       696.424          287.04999
  3944.35645       695.700          286.23001
  3928.81079       694.975          285.39001
  3913.31030       694.250          284.56000
  3897.85474       693.525          283.73999
  3882.44458       692.800          282.91000
  3867.07861       692.075          282.09000
  3851.75806       691.350          281.26999
  3836.48193       690.625          280.44000
  3821.25024       689.899          279.62000
  3806.06348       689.174          278.81000
  3790.92090       688.448          277.98999
  3775.82300       687.723          277.17001
  3760.76904       686.997          276.35999
  3745.75928       686.271          275.54999
  3730.79395       685.545          274.73999
  3715.87256       684.819          273.92999
  3700.99487       684.093          273.12000
  3686.16138       683.367          272.32001
  3671.37158       682.641          271.51001
  3656.62524       681.914          270.70999
  3641.92285       681.188          269.91000
  3627.26367       680.461          269.10999
  3612.64795       679.735          268.31000
  3598.07593       679.008          267.51999
  3583.54688       678.281          266.72000
  3569.06104       677.554          265.92999
  3554.61816       676.827          265.13000
  3540.21851       676.100          264.34000
  3525.86182       675.373          263.56000
  3511.54785       674.646          262.76999
  3497.27686       673.918          261.98999
  3483.04834       673.191          261.20001
  3468.86230       672.464          260.42001
  3454.71899       671.736          259.64001
  3440.61816       671.008          258.85999
  3426.55957       670.281          258.07999
  3412.54346       669.553          257.29999
  3398.56885       668.825          256.53000
  3384.63721       668.097          255.75000
  3370.74731       667.369          254.98000
  3356.89893       666.640          254.21001
  3343.09277       665.912          253.45000
  3329.32837       665.184          252.67999
  3315.60547       664.455          251.91000
  3301.92407       663.727          251.14999
  3288.28442       662.998          250.39000
  3274.68628       662.269          249.63000
  3261.12964       661.541          248.86000
  3247.61401       660.812          248.11000
  3234.13940       660.083          247.35001
  3220.70630       659.354          246.59000
  3207.31396       658.625          245.84000
  3193.96265       657.895          245.09000
  3180.65210       657.166          244.34000
  3167.38232       656.437          243.59000
  3154.15356       655.707          242.85001
  3140.96509       654.978          242.10001
  3127.81738       654.248          241.35001
  3114.70996       653.518          240.61000
  3101.64282       652.789          239.87000
  3088.61621       652.059          239.13000
  3075.62964       651.329          238.39000
  3062.68359       650.599          237.64999
  3049.77686       649.869          236.92000
  3036.91064       649.138          236.17999
  3024.08423       648.408          235.45000
  3011.29761       647.678          234.72000
  2998.31421       646.943          220.70000
  2982.66748       646.174          219.67000
  2967.09863       645.406          218.64000
  2951.60742       644.640          217.62000
  2936.19287       643.875          216.60001
  2920.85571       643.111          215.59000
  2905.59497       642.349          214.57001
  2890.41064       641.589          213.57001
  2875.30176       640.829          212.56000
  2860.26880       640.072          211.57001
  2845.31128       639.315          210.57001
  2830.42847       638.560          209.58000
  2815.62036       637.806          208.60001
  2800.88647       637.054          207.62000
  2786.22681       636.303          206.64000
  2771.64063       635.554          205.67000
  2757.12793       634.806          204.70000
  2742.68799       634.059          203.74001
  2728.32104       633.314          202.78000
  2714.02661       632.570          201.82001
  2699.80420       631.827          200.87000
  2685.65308       631.086          199.92999
  2671.57397       630.346          198.98000
  2657.56567       629.608          198.03999
  2643.62842       628.870          197.10001
  2629.76172       628.135          196.17999
  2615.96484       627.400          195.25000
  2602.23828       626.667          194.32001
  2588.58105       625.935          193.41000
  2574.99292       625.205          192.49001
  2561.47388       624.476          191.58000
  2548.02344       623.748          190.67000
  2534.64136       623.022          189.77000
  2521.32715       622.297          188.87000
  2508.08057       621.573          187.98000
  2494.90137       620.851          187.09000
  2481.78931       620.129          186.20000
  2468.74390       619.410          185.32001
  2455.76514       618.691          184.44000
  2442.85229       617.974          183.57001
  2430.00537       617.258          182.70000
  2417.22388       616.543          181.83000
  2404.50757       615.830          180.97000
  2391.85620       615.118          180.11000
  2379.26953       614.407          179.25000
  2366.74707       613.698          178.39999
  2354.28857       612.989          177.55000
  2341.89380       612.282          176.71001
  2329.56250       611.577          175.87000
  2317.29419       610.872          175.03000
  2305.08838       610.169          174.20000
  2292.94556       609.467          173.37000
  2280.86475       608.766          172.55000
  2268.84570       608.067          171.72000
  2256.88843       607.369          170.91000
  2244.99243       606.672          170.09000
  2233.15723       605.976          169.28999
  2221.38281       605.281          168.48000
  2209.66895       604.588          167.67000
  2198.01514       603.896          166.87000
  2186.42114       603.205          166.08000
  2174.88672       602.515          165.28999
  2163.41162       601.827          164.50000
  2151.99536       601.139          163.71001
  2140.63794       600.453          162.92999
  2129.33887       599.768          162.14999
  2118.09766       599.085          161.38000
  2106.91479       598.402          160.61000
  2095.78906       597.721          159.84000
  2084.72070       597.041          159.08000
  2073.70947       596.362          158.32001
  2062.75464       595.684          157.57001
  2051.85669       595.007          156.81000
  2041.01453       594.332          156.06000
  2030.22827       593.657          155.31000
  2019.49780       592.984          154.57001
  2008.82251       592.312          153.83000
  1998.20239       591.641          153.09000
  1987.63696       590.971          152.36000
  1977.12610       590.302          151.63000
  1966.66943       589.635          150.91000
  1956.26672       588.968          150.19000
  1945.91760       588.303          149.46001
  1935.62207       587.639          148.75000
  1925.37964       586.976          148.03999
  1915.19019       586.314          147.33000
  1905.05347       585.653          146.62000
  1894.96899       584.993          145.92000
  1884.93665       584.334          145.22000
  1874.95618       583.677          144.53000
  1865.02722       583.020          143.83000
  1855.14966       582.365          143.14000
  1845.32324       581.710          142.45000
  1835.54749       581.057          141.77000
  1825.82251       580.405          141.09000
  1816.14771       579.753          140.41000
  1806.52307       579.103          139.74001
  1796.94812       578.454          139.06000
  1787.42285       577.806          138.39999
  1777.94690       577.159          137.73000
  1768.51990       576.513          137.07001
  1759.14172       575.868          136.41000
  1749.81213       575.224          135.75999
  1740.53101       574.582          135.11000
  1731.29797       573.940          134.46001
  1722.11267       573.299          133.81000
  1712.97485       572.659          133.17000
  1703.88452       572.020          132.53000
  1694.84131       571.383          131.89000
  1685.84497       570.746          131.25000
  1676.89514       570.110          130.63000
  1667.99182       569.475          130.00000
  1659.13477       568.842          129.37000
  1650.32349       568.209          128.75000
  1641.55786       567.577          128.13000
  1632.83789       566.946          127.51000
  1624.16321       566.316          126.90000
  1615.53333       565.687          126.28000
  1606.94836       565.059          125.68000
  1598.40784       564.432          125.07000
  1589.91162       563.806          124.47000
  1581.45972       563.181          123.87000
  1573.05139       562.557          123.28000
  1564.68689       561.934          122.68000
  1556.36572       561.312          122.09000
  1548.08789       560.691          121.50000
  1539.85291       560.070          120.92000
  1531.66077       559.451          120.34000
  1523.51123       558.832          119.75000
  1515.40381       558.215          119.17000
  1507.33875       557.598          118.60000
  1499.31555       556.982          118.03000
  1491.33386       556.367          117.46000
  1483.39380       555.753          116.89000
  1475.49487       555.140          116.33000
  1467.63708       554.528          115.76000
  1459.82019       553.917          115.21000
  1452.04370       553.307          114.65000
  1444.30786       552.697          114.10000
  1436.61206       552.089          113.55000
  1428.95630       551.481          113.00000
  1421.34045       550.874          112.45000
  1413.76416       550.268          111.91000
  1406.22754       549.663          111.37000
  1398.73059       549.059          110.83000
  1391.27246       548.456          110.30000
  1383.85315       547.853          109.77000
  1376.47253       547.252          109.23000
  1369.13025       546.651          108.70000
  1361.82605       546.051          108.18000
  1354.56006       545.452          107.66000
  1347.33167       544.854          107.13000
  1340.14087       544.257          106.62000
  1332.98755       543.660          106.10000
  1325.87146       543.065          105.59000
  1318.79248       542.470          105.08000
  1311.75024       541.876          104.57000
  1304.74463       541.282          104.06000
  1297.77551       540.690          103.56000
  1290.84277       540.098          103.06000
  1283.94592       539.508          102.56000
  1277.08508       538.918          102.07000
  1270.25989       538.328          101.57000
  1263.47034       537.740          101.08000
  1256.71606       537.152          100.59000
  1249.99695       536.565          100.10000
  1243.31274       535.979           99.61900
  1236.66357       535.394           99.14000
  1230.04883       534.809           98.65400
  1223.46851       534.225           98.18200
  1216.92261       533.642           97.70200
  1210.41077       533.060           97.23000
  1203.93274       532.479           96.75700
  1197.48853       531.898           96.29200
  1191.07788       531.318           95.82600
  1184.70068       530.738           95.36000
  1178.35669       530.160           94.90100
  1172.04565       529.582           94.43500
  1165.76758       529.005           93.98300
  1159.52222       528.429           93.52400
  1153.30933       527.853           93.07100
  1147.12878       527.278           92.61900
  1140.98059       526.704           92.17300
  1134.86438       526.130           91.72700
  1128.78003       525.558           91.28200
  1122.72742       524.986           90.83500
  1116.70630       524.414           90.39600
  1110.71667       523.844           89.95700
  1104.75818       523.274           89.52500
  1098.83069       522.704           89.08600
  1092.93420       522.136           88.65300
  1087.06848       521.568           88.22800
  1081.23340       521.001           87.79500
  1075.42859       520.434           87.37000
  1069.65417       519.868           86.95100
  1063.90979       519.303           86.52500
  1058.19531       518.739           86.10600
  1052.51074       518.175           85.68700
  1046.85583       517.611           85.27500
  1041.23035       517.049           84.85600
  1035.63428       516.487           84.44400
  1030.06738       515.926           84.03900
  1024.52954       515.365           83.62600
  1019.02057       514.805           83.22100
  1013.54034       514.246           82.81500
  1008.08875       513.687           82.41700
  1002.66553       513.129           82.01800
   997.27063       512.572           81.61400
   991.90393       512.015           81.21700
   986.56519       511.459           80.82300
   981.25433       510.903           80.43000
   975.97119       510.348           80.03900
   970.71570       509.794           79.65100
   965.48755       509.240           79.26400
   960.28674       508.687           78.87900
   955.11304       508.135           78.49500
   949.96637       507.583           78.11400
   944.84662       507.031           77.73400
   939.75360       506.481           77.35600
   934.68713       505.931           76.98000
   929.64709       505.381           76.60600
   924.63354       504.832           76.23300
   919.64600       504.284           75.86300
   914.68457       503.736           75.49400
   909.74902       503.189           75.12700
   904.83936       502.642           74.76200
   899.95526       502.096           74.39900
   895.09674       501.550           74.03700
   890.26355       501.005           73.67600
   885.45563       500.461           73.31900
   880.67285       499.917           72.96200
   875.91504       499.373           72.60700
   871.18207       498.831           72.25400
   866.47394       498.288           71.90200
   861.79034       497.747           71.55300
   857.13129       497.205           71.20500
   852.49646       496.665           70.85900
   847.88599       496.124           70.51400
   843.29962       495.585           70.17100
   838.73718       495.046           69.82900
   834.19855       494.507           69.49000
   829.68378       493.969           69.15100
   825.19257       493.432           68.81500
   820.72479       492.894           68.48000
   816.28046       492.358           68.14700
   811.85938       491.822           67.81500
   807.46136       491.286           67.48500
   803.08643       490.751           67.15700
   798.73425       490.217           66.83000
   794.40497       489.683           66.50500
   790.09833       489.149           66.18100
   785.81415       488.616           65.85900
   781.55249       488.083           65.53800
   777.31305       487.551           65.21900
   773.09583       487.019           64.90300
   768.90070       486.488           64.58600
   764.72754       485.957           64.27200
   760.57617       485.427           63.95900
   756.44666       484.897           63.64800
   752.33862       484.368           63.33800
   748.25214       483.839           63.02900
   744.18713       483.310           62.72300
   740.14337       482.782           62.41700
   736.12073       482.254           62.11400
   732.11920       481.727           61.81100
   728.13861       481.201           61.51100
   724.17896       480.674           61.21100
   720.23999       480.148           60.91300
   716.32166       479.623           60.61600
   712.42395       479.098           60.32100
   708.54651       478.573           60.02800
   704.68945       478.049           59.73500
   700.85266       477.525           59.44400
   697.03595       477.002           59.15600
   693.23920       476.479           58.86700
   689.46240       475.956           58.58000
   685.70538       475.434           58.29600
   681.96808       474.912           58.01200
   678.25043       474.391           57.72900
   674.55219       473.870           57.44800
   670.87335       473.349           57.16800
   667.21387       472.829           56.89000
   663.57349       472.309           56.61300
   659.95227       471.790           56.33700
   656.35004       471.270           56.06300
   652.76666       470.752           55.79100
   649.20215       470.233           55.51900
   645.65631       469.715           55.24900
   642.12915       469.198           54.98000
   638.62042       468.680           54.71200
   635.13013       468.163           54.44600
   631.65814       467.647           54.18100
   628.20441       467.131           53.91700
   624.76874       466.615           53.65500
   621.35120       466.099           53.39300
   617.95154       465.584           53.13300
   614.56982       465.069           52.87500
   611.20575       464.554           52.61800
   607.85944       464.040           52.36100
   604.53070       463.526           52.10700
   601.21936       463.013           51.85300
   597.92548       462.499           51.60100
   594.64893       461.986           51.35000
   591.38959       461.474           51.10000
